'Id: "example_3" Comment: "" Operator: "Lab Manager" Anode: "Cu" Wavelength: "1.5406" Scantype: "2Theta (Locked Coupled)" TimePerStep: "5" X: "0" Y: "-4.8" Z: "0" 
0.20000 1815903.800
0.21000 1812781.400
0.22000 1848521.000
0.23000 1911673.400
0.24000 1977565.800
0.25000 2046488.800
0.26000 2123217.800
0.27000 2196059.000
0.28000 2270828.800
0.29000 2353772.000
0.30000 2423980.600
0.31000 2502638.200
0.32000 2573137.600
0.33000 2662846.000
0.34000 2719570.000
0.35000 2805482.600
0.36000 2868864.800
0.37000 2937497.000
0.38000 3016521.800
0.39000 3064291.800
0.40000 3132755.600
0.41000 3190168.400
0.42000 3254897.400
0.43000 3318983.600
0.44000 3355810.000
0.45000 3417370.800
0.46000 3462890.800
0.47000 3515788.000
0.48000 3540844.000
0.49000 3578450.800
0.50000 3605389.600
0.51000 3630598.400
0.52000 3643608.800
0.53000 3631364.000
0.54000 3609889.600
0.55000 3558844.000
0.56000 3480875.200
0.57000 3343886.600
0.58000 3167576.800
0.59000 2942287.600
0.60000 2671922.600
0.61000 2361226.000
0.62000 2051677.400
0.63000 1739817.800
0.64000 1365986.200
0.65000 1210970.100
0.66000 1077833.600
0.67000 950466.100
0.68000 830475.000
0.69000 718833.150
0.70000 634316.250
0.71000 574035.500
0.72000 536992.050
0.73000 509714.500
0.74000 474457.100
0.75000 423161.900
0.76000 367287.200
0.77000 320042.650
0.78000 291931.050
0.79000 280193.600
0.80000 280490.100
0.81000 280106.900
0.82000 275669.575
0.83000 254228.675
0.84000 225302.100
0.85000 182119.000
0.86000 163025.800
0.87000 151405.200
0.88000 148446.800
0.89000 150659.600
0.90000 155036.200
0.91000 155993.800
0.92000 151339.400
0.93000 141047.600
0.94000 126303.000
0.95000 110446.400
0.96000 96935.200
0.97000 89253.600
0.98000 87107.400
0.99000 89961.600
1.00000 94357.800
1.01000 97554.800
1.02000 97402.600
1.03000 93072.400
1.04000 84846.400
1.05000 74536.000
1.06000 63926.600
1.07000 55881.600
1.08000 51527.000
1.09000 50847.400
1.10000 53120.400
1.11000 56955.000
1.12000 60162.600
1.13000 61411.400
1.14000 60089.000
1.15000 55927.400
1.16000 49496.800
1.17000 42847.000
1.18000 36825.200
1.19000 32416.800
1.20000 30588.600
1.21000 31334.400
1.22000 33619.400
1.23000 36386.600
1.24000 38500.200
1.25000 39463.000
1.26000 38048.200
1.27000 35263.000
1.28000 31055.400
1.29000 26775.200
1.30000 22772.000
1.31000 20139.400
1.32000 18882.200
1.33000 19273.800
1.34000 20645.400
1.35000 22581.800
1.36000 24122.800
1.37000 24809.400
1.38000 24425.200
1.39000 22774.400
1.40000 20363.000
1.41000 17632.200
1.42000 14873.200
1.43000 12962.400
1.44000 11941.200
1.45000 11934.800
1.46000 12794.400
1.47000 14043.800
1.48000 15226.400
1.49000 15970.800
1.50000 15909.200
1.51000 15201.400
1.52000 13864.600
1.53000 11978.400
1.54000 10065.400
1.55000 8682.400
1.56000 7515.400
1.57000 7141.800
1.58000 7484.800
1.59000 8288.600
1.60000 9097.200
1.61000 9845.200
1.62000 10346.600
1.63000 10244.000
1.64000 9530.600
1.65000 8543.200
1.66000 7309.600
1.67000 6085.800
1.68000 5076.400
1.69000 4427.400
1.70000 4331.800
1.71000 4530.600
1.72000 5100.000
1.73000 5757.800
1.74000 6337.200
1.75000 6633.000
1.76000 6567.600
1.77000 6226.000
1.78000 5576.200
1.79000 4710.400
1.80000 3852.800
1.81000 3118.800
1.82000 2691.200
1.83000 2554.800
1.84000 2738.800
1.85000 3131.000
1.86000 3654.400
1.87000 4049.000
1.88000 4309.200
1.89000 4328.600
1.90000 4132.400
1.91000 3718.400
1.92000 3176.200
1.93000 2513.600
1.94000 2037.000
1.95000 1751.400
1.96000 1581.200
1.97000 1643.800
1.98000 1935.200
1.99000 2222.000
2.00000 2586.400
2.01000 2785.600
2.02000 2914.400
2.03000 2793.000
2.04000 2567.200
2.05000 2223.200
2.06000 1750.000
2.07000 1408.000
2.08000 1154.400
2.09000 1019.800
2.10000 1049.600
2.11000 1151.000
2.12000 1366.800
2.13000 1610.200
2.14000 1775.200
2.15000 1898.400
2.16000 1843.800
2.17000 1722.400
2.18000 1521.200
2.19000 1239.600
2.20000 989.000
2.21000 824.000
2.22000 700.600
2.23000 645.000
2.24000 692.800
2.25000 806.800
2.26000 966.400
2.27000 1074.200
2.28000 1157.600
2.29000 1209.600
2.30000 1152.000
2.31000 1038.600
2.32000 899.000
2.33000 754.200
2.34000 585.400
2.35000 476.000
2.36000 431.200
2.37000 446.000
2.38000 480.600
2.39000 565.000
2.40000 653.800
2.41000 713.800
2.42000 746.400
2.43000 729.400
2.44000 703.400
2.45000 625.600
2.46000 536.200
2.47000 442.000
2.48000 366.000
2.49000 319.800
2.50000 301.400
2.51000 314.600
2.52000 347.200
2.53000 396.600
2.54000 432.800
2.55000 494.000
2.56000 475.400
2.57000 490.800
2.58000 448.400
2.59000 387.000
2.60000 330.800
2.61000 289.000
2.62000 245.000
2.63000 217.400
2.64000 210.400
2.65000 231.400
2.66000 266.200
2.67000 278.800
2.68000 313.000
2.69000 308.000
2.70000 314.400
2.71000 322.600
2.72000 284.400
2.73000 253.600
2.74000 219.800
2.75000 200.000
2.76000 164.000
2.77000 160.000
2.78000 164.400
2.79000 164.200
2.80000 191.400
2.81000 196.400
2.82000 215.000
2.83000 210.200
2.84000 216.600
2.85000 208.600
2.86000 193.200
2.87000 159.600
2.88000 151.800
2.89000 127.200
2.90000 117.600
2.91000 120.800
2.92000 123.000
2.93000 130.600
2.94000 136.200
2.95000 143.200
2.96000 148.400
2.97000 144.800
2.98000 152.200
2.99000 140.200
3.00000 117.200
3.01000 104.600
3.02000 98.800
3.03000 94.600
3.04000 80.800
3.05000 90.600
3.06000 79.600
3.07000 86.000
3.08000 96.800
3.09000 91.200
3.10000 89.800
3.11000 96.000
3.12000 92.600
3.13000 89.200
3.14000 81.400
3.15000 69.800
3.16000 64.600
3.17000 62.400
3.18000 53.000
3.19000 61.600
3.20000 58.800
3.21000 57.200
3.22000 65.800
3.23000 56.200
3.24000 68.600
3.25000 62.800
3.26000 52.400
3.27000 57.600
3.28000 55.200
3.29000 42.600
3.30000 44.200
3.31000 46.200
3.32000 46.400
3.33000 42.200
3.34000 45.200
3.35000 42.400
3.36000 40.200
3.37000 43.000
3.38000 43.000
3.39000 39.800
3.40000 36.000
3.41000 36.600
3.42000 33.200
3.43000 34.000
3.44000 32.200
3.45000 33.600
3.46000 29.000
3.47000 33.400
3.48000 31.000
3.49000 28.400
3.50000 28.200
3.51000 28.000
3.52000 28.600
3.53000 25.800
3.54000 30.600
3.55000 25.600
3.56000 25.400
3.57000 28.600
3.58000 24.400
3.59000 23.000
3.60000 25.400
3.61000 26.000
3.62000 25.000
3.63000 25.000
3.64000 23.200
3.65000 23.800
3.66000 19.200
3.67000 19.600
3.68000 21.400
3.69000 17.000
3.70000 21.600
3.71000 20.400
3.72000 19.400
3.73000 19.600
3.74000 20.200
3.75000 22.600
3.76000 16.800
3.77000 19.400
3.78000 19.400
3.79000 19.800
3.80000 18.000
3.81000 19.200
3.82000 15.200
3.83000 15.600
3.84000 17.600
3.85000 19.200
3.86000 15.600
3.87000 16.400
3.88000 15.400
3.89000 16.400
3.90000 18.400
3.91000 16.600
3.92000 15.200
3.93000 15.000
3.94000 18.800
3.95000 14.400
3.96000 12.800
3.97000 12.800
3.98000 13.400
3.99000 14.400
4.00000 13.400
4.01000 12.600
4.02000 12.000
4.03000 14.600
4.04000 13.200
4.05000 12.200
4.06000 13.400
4.07000 10.600
4.08000 10.200
4.09000 10.800
4.10000 8.600
4.11000 10.000
4.12000 10.600
4.13000 10.800
4.14000 9.400
4.15000 9.600
4.16000 9.600
4.17000 9.400
4.18000 12.000
4.19000 13.400
4.20000 10.000
4.21000 10.800
4.22000 8.600
4.23000 8.000
4.24000 9.400
4.25000 10.000
4.26000 9.800
4.27000 7.400
4.28000 10.800
4.29000 8.600
4.30000 7.600
4.31000 9.000
4.32000 7.800
4.33000 8.400
4.34000 9.000
4.35000 7.800
4.36000 6.000
4.37000 8.000
4.38000 7.800
4.39000 6.000
4.40000 10.000
4.41000 6.600
4.42000 5.200
4.43000 6.400
4.44000 7.600
4.45000 4.400
4.46000 9.200
4.47000 6.800
4.48000 8.600
4.49000 6.800
4.50000 6.400
4.51000 9.000
4.52000 8.200
4.53000 6.800
4.54000 6.800
4.55000 7.800
4.56000 6.600
4.57000 6.400
4.58000 5.000
4.59000 8.400
4.60000 4.600
4.61000 4.600
4.62000 8.000
4.63000 4.600
4.64000 5.200
4.65000 4.800
4.66000 3.800
4.67000 6.400
4.68000 5.200
4.69000 3.600
4.70000 5.800
4.71000 5.200
4.72000 5.000
4.73000 6.400
4.74000 6.600
4.75000 4.600
4.76000 6.400
4.77000 5.000
4.78000 4.600
4.79000 5.200
4.80000 6.200
4.81000 5.600
4.82000 3.400
4.83000 4.600
4.84000 3.000
4.85000 3.200
4.86000 4.000
4.87000 5.000
4.88000 3.800
4.89000 4.200
4.90000 5.400
4.91000 4.600
4.92000 2.400
4.93000 3.200
4.94000 4.000
4.95000 3.600
4.96000 5.600
4.97000 4.200
4.98000 3.800
4.99000 4.200
5.00000 4.000
5.01000 5.000
5.02000 4.200
5.03000 6.000
5.04000 4.800
5.05000 4.200
5.06000 4.200
5.07000 3.800
5.08000 3.200
5.09000 4.200
5.10000 5.000
5.11000 3.600
5.12000 3.000
5.13000 2.600
5.14000 3.400
5.15000 5.000
5.16000 3.600
5.17000 3.000
5.18000 5.800
5.19000 3.400
5.20000 3.400
5.21000 3.800
5.22000 2.200
5.23000 3.600
5.24000 3.000
5.25000 3.200
5.26000 2.200
5.27000 3.000
5.28000 2.400
5.29000 4.200
5.30000 1.600
5.31000 3.000
5.32000 1.600
5.33000 3.600
5.34000 2.800
5.35000 2.400
5.36000 2.200
5.37000 3.400
5.38000 1.800
5.39000 1.200
5.40000 2.400
5.41000 0.400
5.42000 1.400
5.43000 2.000
5.44000 2.000
5.45000 2.800
5.46000 3.000
5.47000 3.200
5.48000 2.800
5.49000 1.200
5.50000 2.400
5.51000 2.000
5.52000 2.200
5.53000 2.400
5.54000 3.400
5.55000 2.200
5.56000 3.000
5.57000 2.200
5.58000 3.800
5.59000 2.600
5.60000 2.200
5.61000 2.400
5.62000 2.200
5.63000 2.400
5.64000 2.200
5.65000 0.800
5.66000 2.800
5.67000 2.000
5.68000 2.600
5.69000 2.800
5.70000 0.800
5.71000 1.000
5.72000 2.000
5.73000 2.800
5.74000 2.200
5.75000 2.200
5.76000 3.200
5.77000 1.600
5.78000 2.000
5.79000 1.000
5.80000 0.800
5.81000 1.400
5.82000 1.800
5.83000 3.000
5.84000 1.400
5.85000 2.200
5.86000 1.200
5.87000 2.400
5.88000 1.200
5.89000 1.600
5.90000 1.800
5.91000 1.800
5.92000 1.000
5.93000 1.600
5.94000 2.200
5.95000 0.800
5.96000 1.600
5.97000 1.800
5.98000 1.000
5.99000 1.800
